File: Degussa_P25.dat
# M.B. Degussa P25
# Wavelength(nm) Absorbance(a.u.)
#	A.M. 195 min	A.M. 120 min	A.M. 90 min	A.M. 60 min	A.M. 30 min	A.M. 15 min	A.M. 5 min	A.M. 0 min
199.408	-0.02648	-0.06222	-0.06742	-0.03847	-0.06588	-0.01282	0.01132		0.18922
205.964	-0.03374	-0.05141	-0.0532	-0.03768	-0.04146	-0.03302	0.04645	0.1784
212.516	-0.03717	-0.05533	-0.05075	-0.03806	-0.04305	-0.03485	0.04361	0.17905
219.066	-0.03815	-0.05663	-0.04913	-0.03614	-0.04213	-0.03234	0.0442	0.17348
225.612	-0.03435	-0.05309	-0.04984	-0.04097	-0.04126	-0.0241	0.0434	0.17554
232.155	-0.02286	-0.05065	-0.04663	-0.03556	-0.03559	-0.01665	0.04602	0.17713
238.694	-0.02073	-0.0472	-0.0477	-0.03123	-0.02996	-0.01806	0.0478	0.1817
245.231	-0.02292	-0.04398	-0.04537	-0.03689	-0.0282	-0.01581	0.05164	0.18538
251.764	-0.02112	-0.03997	-0.04256	-0.03445	-0.02434	-0.00981	0.05222	0.17861
258.294	-0.02299	-0.03851	-0.04586	-0.03145	-0.01971	-0.00529	0.05359	0.17436
264.82	-0.02262	-0.03813	-0.04134	-0.02554	-0.01793	0.00187	0.06094	0.19137
271.344	-0.02026	-0.03951	-0.04014	-0.02108	-0.01459	0.00657	0.07409	0.22701
277.863	-0.02087	-0.04022	-0.04103	-0.02476	-0.01088	0.01405	0.09732	0.28795
284.38	-0.02234	-0.03911	-0.03898	-0.02236	-0.00769	0.02401	0.13252	0.37285
290.892	-0.02132	-0.03676	-0.03789	-0.01875	-0.00464	0.02548	0.14252	0.41951
297.402	-0.02229	-0.0379	-0.04204	-0.02132	-0.00711	0.01625	0.10805	0.35573
303.907	-0.02216	-0.03894	-0.04246	-0.02127	-0.00766	0.00749	0.06567	0.24293
310.41	-0.02155	-0.03827	-0.04127	-0.01967	-0.00791	0.00465	0.0376	0.16413
316.908	-0.0222	-0.03759	-0.04292	-0.01987	-0.01005	0.0024	0.02493	0.13052
323.403	-0.02198	-0.03785	-0.04371	-0.01948	-0.01054	1.43243E-4	0.01759	0.11241
329.895	-0.02253	-0.03799	-0.04444	-0.01915	-0.01092	-0.00149	0.00781	0.091
336.382	-0.02125	-0.03624	-0.04325	-0.01754	-0.01159	-0.00328	-0.00227	0.06531
342.866	-0.0202	-0.03603	-0.04312	-0.01726	-0.01366	-0.00562	-0.01115	0.0418
349.346	-0.02083	-0.0374	-0.04302	-0.01805	-0.01529	-0.00785	-0.01766	0.02425
355.823	-0.02125	-0.03808	-0.04265	-0.01827	-0.01637	-0.01003	-0.02148	0.01299
362.295	-0.01974	-0.03724	-0.04317	-0.01721	-0.01726	-0.0105	-0.02355	0.0077
368.764	-0.01878	-0.03525	-0.04152	-0.01585	-0.01663	-0.00957	-0.02333	0.00559
375.229	-0.01821	-0.03533	-0.04045	-0.01545	-0.01651	-0.00957	-0.02246	0.00449
381.69	-0.01776	-0.03564	-0.03975	-0.0157	-0.01746	-0.0094	-0.02183	0.00443
388.147	-0.01812	-0.03445	-0.03965	-0.0158	-0.01745	-0.01012	-0.02172	0.00467
394.6	-0.01694	-0.03379	-0.03969	-0.01513	-0.01783	-0.01043	-0.02213	0.00336
401.049	-0.0163	-0.03402	-0.039	-0.01467	-0.01784	-0.01021	-0.02301	-4.57425E-5
407.495	-0.01736	-0.03422	-0.03919	-0.01551	-0.01893	-0.01125	-0.02464	-0.00464
413.936	-0.01757	-0.0346	-0.03977	-0.01595	-0.01967	-0.01229	-0.02562	-0.0087
420.373	-0.01687	-0.03394	-0.03873	-0.01515	-0.01863	-0.01167	-0.02352	-0.00885
426.805	-0.01667	-0.03376	-0.03792	-0.01502	-0.01799	-0.01141	-0.02296	-0.00738
433.234	-0.01697	-0.03385	-0.03742	-0.01497	-0.01858	-0.01112	-0.02164	-0.00525
439.659	-0.01674	-0.03356	-0.03692	-0.01411	-0.01891	-0.01055	-0.01955	-0.00311
446.079	-0.01461	-0.03205	-0.03545	-0.01324	-0.01665	-0.00936	-0.01706	-1.88724E-4
452.495	-0.01384	-0.03076	-0.03445	-0.01314	-0.01646	-0.00821	-0.01423	0.00465
458.907	-0.01448	-0.03137	-0.03528	-0.01486	-0.01702	-0.00766	-0.01279	0.00633
465.315	-0.01454	-0.03225	-0.03521	-0.01538	-0.01625	-0.00765	-0.01059	0.00841
471.718	-0.01438	-0.03205	-0.03525	-0.01467	-0.01678	-0.00802	-0.00817	0.01282
478.117	-0.01494	-0.03236	-0.03616	-0.01445	-0.01685	-0.0068	-0.00712	0.01469
484.511	-0.01426	-0.03096	-0.03423	-0.01368	-0.01512	-0.00487	-0.00512	0.01792
490.901	-0.01305	-0.02989	-0.03236	-0.01276	-0.01402	-0.00363	-0.00265	0.02278
497.287	-0.01356	-0.02981	-0.03346	-0.01368	-0.01405	-0.0036	-8.2019E-4	0.02689
503.668	-0.01357	-0.02984	-0.03478	-0.01513	-0.01489	-0.00523	-4.46881E-4	0.02816
510.045	-0.01404	-0.03132	-0.03467	-0.01655	-0.01709	-0.00729	-4.54131E-4	0.02784
516.417	-0.01511	-0.03231	-0.03473	-0.01644	-0.01782	-0.00621	5.099E-4	0.02889
522.784	-0.01581	-0.03366	-0.03656	-0.01753	-0.01866	-0.00639	0.00169	0.03146
529.147	-0.01553	-0.03355	-0.03671	-0.01914	-0.01996	-0.00791	0.00401	0.03696
535.505	-0.0153	-0.03299	-0.0354	-0.0185	-0.01946	-0.00791	0.00726	0.04441
541.859	-0.01486	-0.03267	-0.03467	-0.01785	-0.01894	-0.0071	0.01273	0.05747
548.208	-0.01553	-0.03302	-0.03492	-0.01863	-0.02019	-0.00668	0.01942	0.07578
554.552	-0.0169	-0.03395	-0.03574	-0.01948	-0.02044	-0.00654	0.02759	0.09686
560.892	-0.0168	-0.03348	-0.03524	-0.01935	-0.01947	-0.00531	0.03773	0.12113
567.226	-0.01589	-0.03274	-0.03411	-0.01852	-0.01869	-0.0033	0.04977	0.14853
573.556	-0.01499	-0.03075	-0.0322	-0.01724	-0.01712	-1.38301E-4	0.06421	0.18159
579.881	-0.01445	-0.02969	-0.03165	-0.01683	-0.01643	0.00263	0.08087	0.22397
586.201	-0.0135	-0.02978	-0.03143	-0.01696	-0.0157	0.00571	0.10181	0.28232
592.516	-0.01313	-0.0293	-0.03048	-0.01646	-0.0146	0.00941	0.12552	0.355
598.827	-0.01269	-0.02803	-0.02942	-0.01526	-0.01328	0.01343	0.14952	0.43166
605.132	-0.01234	-0.02737	-0.02898	-0.01456	-0.01239	0.01708	0.17083	0.50091
611.432	-0.01206	-0.02754	-0.02875	-0.01475	-0.01242	0.01967	0.18743	0.54601
617.728	-0.01188	-0.02767	-0.02846	-0.01486	-0.01279	0.02158	0.2004	0.56482
624.018	-0.01193	-0.02772	-0.02823	-0.01512	-0.01388	0.02294	0.21398	0.57771
630.303	-0.01256	-0.02798	-0.02852	-0.01532	-0.01544	0.02386	0.23058	0.60925
636.583	-0.01271	-0.02797	-0.02918	-0.0154	-0.01658	0.02443	0.25155	0.67111
642.858	-0.01266	-0.02813	-0.02895	-0.01544	-0.01791	0.02431	0.27473	0.75956
649.128	-0.0127	-0.02816	-0.02881	-0.01553	-0.01881	0.02275	0.29403	0.85923
655.392	-0.01317	-0.02839	-0.02933	-0.0159	-0.01967	0.01927	0.30002	0.94186
661.651	-0.01357	-0.02828	-0.02957	-0.01648	-0.02064	0.01462	0.29129	0.98948
667.905	-0.0137	-0.02846	-0.02949	-0.01716	-0.02188	0.00786	0.26031	0.95661
674.154	-0.01377	-0.0279	-0.02921	-0.01757	-0.02232	-0.00101	0.19918	0.78733
680.397	-0.01432	-0.02814	-0.02964	-0.0185	-0.02315	-0.00969	0.12663	0.5423
686.635	-0.01485	-0.02882	-0.03004	-0.01946	-0.02405	-0.01648	0.06326	0.31468
692.868	-0.01468	-0.02792	-0.02957	-0.01902	-0.02415	-0.0205	0.02049	0.15844
699.095	-0.01533	-0.02817	-0.02975	-0.01976	-0.02452	-0.02338	-0.00268	0.07393
705.317	-0.01572	-0.02896	-0.03009	-0.02013	-0.02478	-0.02519	-0.01487	0.03017
711.533	-0.0152	-0.02892	-0.03004	-0.01984	-0.02493	-0.02607	-0.0212	0.00761
717.744	-0.01453	-0.02834	-0.02925	-0.01951	-0.02438	-0.02627	-0.02459	-0.004
723.949	-0.01303	-0.02647	-0.02747	-0.01776	-0.02254	-0.02509	-0.02474	-0.00897
730.148	-0.01131	-0.02481	-0.02612	-0.01617	-0.02085	-0.02314	-0.02382	-0.01129
736.342	-0.00982	-0.02331	-0.02491	-0.0148	-0.01964	-0.02218	-0.0237	-0.0127
742.531	-0.00914	-0.02236	-0.02431	-0.01392	-0.01871	-0.02148	-0.0232	-0.01372
748.713	-0.00956	-0.0233	-0.02482	-0.01516	-0.01944	-0.02176	-0.02349	-0.01581
754.89	-0.01011	-0.02325	-0.02492	-0.01561	-0.01984	-0.0225	-0.02492	-0.01716
761.061	-0.00985	-0.0228	-0.02453	-0.01497	-0.01956	-0.02252	-0.02506	-0.01806
767.227	-0.00822	-0.02207	-0.02298	-0.01349	-0.01822	-0.02108	-0.02399	-0.01758
773.387	-0.00866	-0.02244	-0.02307	-0.01396	-0.01813	-0.02178	-0.0247	-0.01801
779.54	-0.00921	-0.02277	-0.02371	-0.01481	-0.01888	-0.02203	-0.02503	-0.01868
785.688	-0.00871	-0.02149	-0.02292	-0.01382	-0.0186	-0.02144	-0.02449	-0.01845
791.831	-0.01112	-0.02325	-0.02463	-0.01614	-0.02042	-0.02404	-0.02667	-0.02127
797.967	-0.01326	-0.02558	-0.02698	-0.01879	-0.0219	-0.02577	-0.02842	-0.02354
804.097	-0.01376	-0.0267	-0.02772	-0.01912	-0.02288	-0.02583	-0.02893	-0.02456
810.221	-0.01333	-0.02564	-0.02658	-0.0183	-0.02205	-0.02591	-0.02862	-0.02398
816.34	-0.01257	-0.02476	-0.02632	-0.01836	-0.02155	-0.02542	-0.02852	-0.0233
822.452	-0.01248	-0.02467	-0.02575	-0.01805	-0.02139	-0.02395	-0.02742	-0.02214
828.558	-0.00989	-0.02248	-0.02295	-0.01454	-0.0179	-0.0221	-0.02458	-0.02035
834.658	-0.00713	-0.01939	-0.02047	-0.01261	-0.01595	-0.02056	-0.02324	-0.01918
840.752	-0.00736	-0.01845	-0.02002	-0.01306	-0.01602	-0.01999	-0.02292	-0.01821
846.84	-0.00631	-0.01777	-0.0188	-0.01183	-0.01459	-0.01927	-0.02176	-0.01759
852.921	-0.00432	-0.01674	-0.01702	-0.01028	-0.01236	-0.01754	-0.01991	-0.01645
858.997	-0.0031	-0.0164	-0.01569	-0.00844	-0.01136	-0.01573	-0.01863	-0.01445
865.066	-0.00352	-0.01552	-0.01496	-0.00791	-0.01112	-0.01458	-0.01737	-0.01344
871.129	-0.00293	-0.01428	-0.01508	-0.00871	-0.0113	-0.01443	-0.01733	-0.01362
877.185	4.13554E-4	-0.01107	-0.0126	-0.00657	-0.00836	-0.01305	-0.01571	-0.0117
883.235	0.00211	-0.00993	-0.01051	-0.00415	-0.00577	-0.01176	-0.01385	-0.00998
889.279	4.59735E-4	-0.0108	-0.01203	-0.00546	-0.00693	-0.01221	-0.01545	-0.01075
895.317	4.75962E-4	-0.01006	-0.01157	-0.00454	-0.00682	-0.0113	-0.01429	-0.00932
901.348	0.00339	-0.00864	-0.00796	-0.00162	-0.00487	-0.0087	-0.01151	-0.00676
907.372	0.00501	-0.00781	-0.00675	-0.00105	-0.00308	-0.00735	-0.01017	-0.00642
913.39	0.00885	-0.00402	-0.00383	0.00198	5.83202E-4	-0.00406	-0.00647	-0.00313
919.402	0.01372	0.00119	2.333E-4	0.00657	0.0053	-5.70054E-4	-0.00178	0.00233
925.407	0.02003	0.00821	0.00705	0.01419	0.01306	0.00744	0.00568	0.01008
931.405	0.03091	0.01938	0.01764	0.02576	0.02276	0.02007	0.01756	0.02273
937.397	0.04006	0.02747	0.02752	0.03416	0.03186	0.02867	0.02829	0.03581
943.382	0.05395	0.04324	0.04136	0.04873	0.04834	0.04269	0.04544	0.05441
949.36	0.09134	0.07836	0.07736	0.08502	0.08358	0.07774	0.08002	0.08794
955.332	0.13114	0.11708	0.11865	0.12524	0.12353	0.11783	0.11833	0.1241
961.297	0.15408	0.14188	0.14085	0.14984	0.14751	0.14228	0.14165	0.14723
967.255	0.16684	0.15675	0.1542	0.16311	0.16077	0.15559	0.15392	0.15941
973.207	0.17411	0.16326	0.16292	0.16936	0.16815	0.16207	0.16033	0.16567
979.151	0.17062	0.15982	0.15931	0.16421	0.16448	0.16007	0.15787	0.16406
985.089	0.16375	0.15415	0.15102	0.15704	0.15833	0.15362	0.15057	0.15842
991.02	0.15873	0.14704	0.14521	0.15119	0.15129	0.14549	0.14439	0.1516
996.944	0.14678	0.13044	0.135	0.13224	0.12841	0.13072	0.13087	0.14112
1000.172	0.13884	0.13586	0.12836	0.13312	0.13609	0.12827	0.12938	0.142