File: Methylene_blue_anatase0.28_brookite0.72.dat
# Methylene blue with anatase (0.28%) brookite (0.72%)
# Wavelength(nm) Absorbance(a.u.)
#	A.M.Brooquita.Anatasa. 60h 195 min	A.M.Brooquita.Anatasa. 60h 120 min	A.M.Brooquita.Anatasa. 60h 90 min	A.M.Brooquita.Anatasa. 60h 60 min	A.M.Brooquita.Anatasa. 60h 30 min	A.M.Brooquita.Anatasa. 60h 15 min	A.M.Brooquita.Anatasa. 60h 5 min	A.M.Brooquita.Anatasa. 60h 0 min
199.408	-0.03376	-0.02285	-0.02507	0.00684	0.00931	0.02696	0.02491	0.02874
205.964	-0.02335	-0.01961	-0.01232	-0.00797	0.01275	0.02999	0.0459	0.03418
212.516	-0.02162	-0.01937	-0.01023	-0.00839	0.01124	0.03524	0.04522	0.03656
219.066	-0.02551	-0.02384	-0.01116	-0.01009	0.00768	0.03209	0.04251	0.03957
225.612	-0.02877	-0.0252	-0.01531	-0.01141	0.00836	0.02561	0.04171	0.03817
232.155	-0.02414	-0.01759	-0.01343	-0.00662	0.01685	0.03213	0.04308	0.04201
238.694	-0.0216	-0.01324	-0.00988	3.04427E-4	0.01971	0.04061	0.05245	0.05636
245.231	-0.02033	-0.00885	4.476E-4	0.00335	0.01944	0.04986	0.06834	0.07975
251.764	-0.01506	0.00176	0.01362	0.01248	0.02906	0.06389	0.08219	0.1169
258.294	-0.01497	0.00986	0.01673	0.02038	0.03539	0.07542	0.1003	0.15028
264.82	-0.0168	0.01422	0.02081	0.02583	0.04016	0.08557	0.11983	0.1779
271.344	-0.0171	0.01828	0.02667	0.03153	0.04616	0.10244	0.14161	0.21686
277.863	-0.01788	0.01925	0.03082	0.03567	0.0548	0.12129	0.16782	0.25896
284.38	-0.01886	0.01921	0.03316	0.04097	0.06788	0.14333	0.19918	0.30324
290.892	-0.02012	0.01971	0.03332	0.04252	0.07182	0.15484	0.21652	0.33495
297.402	-0.01955	0.02075	0.03129	0.04004	0.06188	0.14299	0.20562	0.33785
303.907	-0.02023	0.0213	0.02869	0.03576	0.04738	0.11865	0.17796	0.31723
310.41	-0.02089	0.02032	0.02791	0.03283	0.03638	0.09942	0.15192	0.28718
316.908	-0.02178	0.01884	0.0283	0.03058	0.0315	0.08793	0.13284	0.25516
323.403	-0.02447	0.01731	0.02631	0.0281	0.027	0.07505	0.11256	0.21472
329.895	-0.02519	0.01558	0.02359	0.02522	0.02156	0.06048	0.09032	0.17184
336.382	-0.02455	0.01294	0.02095	0.02147	0.01585	0.04589	0.06882	0.13385
342.866	-0.02421	0.00944	0.01758	0.01697	0.01099	0.03369	0.05051	0.10288
349.346	-0.02508	0.00653	0.0136	0.01293	0.00641	0.02467	0.03698	0.07917
355.823	-0.0259	0.00364	0.00987	0.00995	0.00276	0.01705	0.02634	0.06071
362.295	-0.02622	0.00111	0.00708	0.00734	4.8919E-4	0.01162	0.01897	0.04762
368.764	-0.02634	-7.17595E-4	0.00516	0.00519	-0.00124	0.00859	0.01415	0.03858
375.229	-0.02664	-0.00282	0.00325	0.0033	-0.0028	0.00559	0.01107	0.03157
381.69	-0.02689	-0.00458	0.00126	0.0013	-0.00413	0.00329	0.00791	0.02603
388.147	-0.02706	-0.00591	-4.36581E-4	-5.30291E-4	-0.00493	0.00199	0.00572	0.02186
394.6	-0.02716	-0.00773	-0.00259	-0.00275	-0.00655	2.09786E-5	0.00344	0.01764
401.049	-0.02738	-0.00949	-0.00426	-0.00393	-0.00777	-0.00197	0.0012	0.01372
407.495	-0.02704	-0.01008	-0.0048	-0.00447	-0.00841	-0.00327	-9.52436E-4	0.01072
413.936	-0.02678	-0.01099	-0.00629	-0.00544	-0.00937	-0.00467	-0.00266	0.00781
420.373	-0.02688	-0.01281	-0.008	-0.00716	-0.00994	-0.00618	-0.00382	0.00547
426.805	-0.02667	-0.01353	-0.00928	-0.00855	-0.01072	-0.00712	-0.00473	0.0045
433.234	-0.0267	-0.01413	-0.01062	-0.00982	-0.01153	-0.00726	-0.00474	0.00326
439.659	-0.02656	-0.01549	-0.01146	-0.01113	-0.01166	-0.00735	-0.00518	0.00165
446.079	-0.02636	-0.01615	-0.01218	-0.01194	-0.0118	-0.00751	-0.00526	7.06073E-4
452.495	-0.02595	-0.01626	-0.01271	-0.01197	-0.01173	-0.00674	-0.00444	7.99976E-4
458.907	-0.0257	-0.01637	-0.01299	-0.01217	-0.01147	-0.00571	-0.0039	6.90772E-4
465.315	-0.02565	-0.01663	-0.01339	-0.01238	-0.01089	-0.00554	-0.00286	5.00425E-4
471.718	-0.02518	-0.01732	-0.01349	-0.01241	-0.01026	-0.00554	-0.00228	6.78312E-4
478.117	-0.02494	-0.01745	-0.01364	-0.01275	-0.01081	-0.0053	-0.00237	3.68537E-4
484.511	-0.02447	-0.01704	-0.01364	-0.01243	-0.01022	-0.00458	-0.00149	7.4725E-4
490.901	-0.0243	-0.01731	-0.01319	-0.01189	-0.00876	-0.00309	1.6128E-4	0.00162
497.287	-0.02404	-0.01739	-0.01315	-0.01218	-0.00731	-6.37887E-4	0.00236	0.00287
503.668	-0.02382	-0.01708	-0.01386	-0.01178	-0.00694	8.42029E-5	0.00291	0.00329
510.045	-0.02408	-0.01726	-0.01333	-0.01147	-0.0066	2.37685E-4	0.00319	0.00327
516.417	-0.02371	-0.01748	-0.01231	-0.01104	-0.00553	0.00125	0.00493	0.00396
522.784	-0.02333	-0.01683	-0.01148	-0.01	-0.00377	0.00384	0.00781	0.00536
529.147	-0.02361	-0.01662	-0.01119	-0.00895	-0.00222	0.0056	0.00891	0.00606
535.505	-0.02315	-0.01612	-0.01014	-0.00754	-5.82821E-4	0.00795	0.01093	0.00812
541.859	-0.02312	-0.01597	-0.00957	-0.00666	0.00161	0.01146	0.01525	0.01127
548.208	-0.02319	-0.0159	-0.00904	-0.00565	0.00518	0.01636	0.02159	0.01583
554.552	-0.02293	-0.01522	-0.00832	-0.00419	0.00877	0.02223	0.02835	0.02101
560.892	-0.02254	-0.01473	-0.00735	-0.00239	0.0131	0.02851	0.03587	0.02707
567.226	-0.02209	-0.01417	-0.00605	-7.36476E-4	0.01818	0.03561	0.04464	0.03368
573.556	-0.02132	-0.0135	-0.00477	0.00108	0.02325	0.0435	0.05418	0.04074
579.881	-0.02064	-0.0126	-0.00335	0.00326	0.02855	0.05221	0.06487	0.04914
586.201	-0.02049	-0.01231	-0.00225	0.00504	0.03469	0.06209	0.07759	0.05915
592.516	-0.02056	-0.01185	-0.00145	0.00676	0.04125	0.07319	0.09216	0.07043
598.827	-0.02043	-0.01118	-1.07395E-4	0.00874	0.04855	0.08468	0.10743	0.08267
605.132	-0.02029	-0.01058	0.00118	0.01045	0.05557	0.09558	0.12174	0.0947
611.432	-0.01996	-0.01028	0.00168	0.01163	0.06051	0.10364	0.13194	0.1036
617.728	-0.02015	-0.01098	0.00134	0.01195	0.06315	0.10803	0.13726	0.1077
624.018	-0.02043	-0.01143	0.00141	0.01263	0.06568	0.11169	0.14131	0.11041
630.303	-0.02084	-0.01145	0.00166	0.01296	0.06849	0.1166	0.14723	0.11484
636.583	-0.02106	-0.01159	0.0015	0.01305	0.07236	0.12371	0.15718	0.12182
642.858	-0.02091	-0.01191	8.33945E-4	0.01303	0.07781	0.13349	0.17126	0.13169
649.128	-0.02023	-0.01168	5.05055E-4	0.01366	0.08315	0.14371	0.18738	0.14369
655.392	-0.0198	-0.01157	-8.65838E-5	0.01351	0.08547	0.14916	0.19787	0.15255
661.651	-0.01965	-0.01217	-0.00204	0.01185	0.08451	0.14992	0.20154	0.15713
667.905	-0.01939	-0.0129	-0.0051	0.00808	0.07631	0.13847	0.18884	0.1487
674.154	-0.01926	-0.0139	-0.00828	0.00246	0.05831	0.10893	0.15109	0.11948
680.397	-0.01938	-0.01536	-0.01152	-0.00384	0.03508	0.07065	0.10013	0.07856
686.635	-0.01966	-0.01691	-0.01433	-0.00948	0.01397	0.03555	0.05311	0.04044
692.868	-0.0191	-0.01735	-0.01591	-0.01313	2.33847E-4	0.01221	0.0217	0.01439
699.095	-0.01856	-0.01742	-0.01706	-0.01558	-0.00815	-9.36128E-4	0.00448	1.11297E-4
705.317	-0.01886	-0.01786	-0.01743	-0.01681	-0.01291	-0.00837	-0.00494	-0.00697
711.533	-0.01849	-0.01791	-0.01779	-0.01729	-0.01496	-0.01191	-0.00954	-0.01055
717.744	-0.01821	-0.0181	-0.0184	-0.01804	-0.0162	-0.01399	-0.01234	-0.01273
723.949	-0.01834	-0.01793	-0.01814	-0.0178	-0.01675	-0.01507	-0.01383	-0.0138
730.148	-0.01713	-0.01688	-0.01753	-0.01705	-0.01641	-0.01481	-0.01373	-0.01374
736.342	-0.01563	-0.01563	-0.01614	-0.01597	-0.01496	-0.01379	-0.01261	-0.01284
742.531	-0.01497	-0.01495	-0.01507	-0.01562	-0.01486	-0.01402	-0.01281	-0.01229
748.713	-0.01459	-0.01493	-0.01533	-0.01576	-0.01493	-0.01403	-0.01303	-0.01218
754.89	-0.01459	-0.01515	-0.01528	-0.01518	-0.01471	-0.01398	-0.01327	-0.0131
761.061	-0.01457	-0.01491	-0.01466	-0.01499	-0.01477	-0.01419	-0.01381	-0.01352
767.227	-0.01524	-0.01547	-0.01516	-0.0157	-0.01544	-0.01498	-0.01437	-0.01422
773.387	-0.01579	-0.01568	-0.01553	-0.01587	-0.01609	-0.01583	-0.01527	-0.01467
779.54	-0.0157	-0.0154	-0.01572	-0.01621	-0.0162	-0.01624	-0.01579	-0.01526
785.688	-0.01601	-0.01599	-0.01632	-0.01685	-0.01649	-0.01627	-0.01587	-0.01573
791.831	-0.01628	-0.0169	-0.01678	-0.01743	-0.0171	-0.01683	-0.0163	-0.01598
797.967	-0.01664	-0.01703	-0.01717	-0.01755	-0.01744	-0.0178	-0.01689	-0.01654
804.097	-0.01691	-0.01674	-0.01738	-0.01737	-0.01703	-0.01749	-0.01622	-0.01593
810.221	-0.01688	-0.01675	-0.01743	-0.0175	-0.01736	-0.01698	-0.01572	-0.01576
816.34	-0.01681	-0.01705	-0.01764	-0.01771	-0.01784	-0.01723	-0.01639	-0.01687
822.452	-0.01651	-0.01617	-0.0162	-0.01782	-0.01768	-0.01648	-0.01636	-0.01604
828.558	-0.01486	-0.01467	-0.0148	-0.01627	-0.01659	-0.01613	-0.01577	-0.01405
834.658	-0.01416	-0.01408	-0.01442	-0.01506	-0.0154	-0.01534	-0.0154	-0.01368
840.752	-0.01418	-0.01377	-0.01423	-0.01478	-0.01474	-0.01506	-0.0146	-0.01375
846.84	-0.0129	-0.01266	-0.01362	-0.01458	-0.01447	-0.01457	-0.01403	-0.01316
852.921	-0.01149	-0.01203	-0.0122	-0.01329	-0.0128	-0.01259	-0.01256	-0.01221
858.997	-0.01047	-0.01156	-0.01175	-0.01232	-0.01194	-0.01204	-0.0118	-0.01145
865.066	-0.01042	-0.01114	-0.01217	-0.01292	-0.013	-0.01341	-0.01316	-0.01078
871.129	-0.01021	-0.01079	-0.0113	-0.01303	-0.01292	-0.01259	-0.01235	-0.01001
877.185	-0.00913	-0.00935	-0.00979	-0.01105	-0.01049	-0.00973	-0.00949	-0.00869
883.235	-0.00826	-0.0076	-0.00885	-0.00963	-0.00985	-0.00875	-0.00896	-0.00745
889.279	-0.00745	-0.00732	-0.00851	-0.0094	-0.00958	-0.00936	-0.0093	-0.00737
895.317	-0.0068	-0.00753	-0.00872	-0.00945	-0.00908	-0.00927	-0.00869	-0.00746
901.348	-0.00624	-0.00626	-0.00696	-0.00758	-0.00764	-0.00812	-0.00749	-0.00689
907.372	-0.00485	-0.00484	-0.00563	-0.00647	-0.00634	-0.00642	-0.00628	-0.0065
913.39	-0.00349	-0.00335	-0.00457	-0.0055	-0.00556	-0.00497	-0.00486	-0.00434
919.402	-0.00143	-0.0024	-0.00256	-0.00266	-0.00315	-0.00281	-0.00256	-0.00199
925.407	0.00244	8.56105E-4	0.00112	0.00111	9.29738E-4	0.00163	0.00178	0.00165
931.405	0.00687	0.00646	0.00501	0.00476	0.00493	0.00578	0.00621	0.00675
937.397	0.01213	0.01206	0.01058	0.01083	0.0109	0.01151	0.01197	0.0132
943.382	0.02331	0.02318	0.02281	0.02265	0.02464	0.0247	0.0241	0.0255
949.36	0.04197	0.04171	0.03957	0.0389	0.04035	0.04168	0.04144	0.04168
955.332	0.06123	0.06206	0.05893	0.05684	0.05803	0.05925	0.06056	0.06042
961.297	0.07374	0.07384	0.07324	0.07097	0.07243	0.07269	0.07302	0.07401
967.255	0.0801	0.07897	0.07932	0.07863	0.07977	0.07888	0.07855	0.07904
973.207	0.08122	0.08045	0.07951	0.0804	0.0809	0.08012	0.0803	0.08054
979.151	0.08037	0.08004	0.07879	0.07909	0.07953	0.07987	0.07932	0.08024
985.089	0.0778	0.07809	0.07735	0.07522	0.07627	0.07722	0.07661	0.0777
991.02	0.07427	0.07503	0.07386	0.07178	0.07218	0.07237	0.07255	0.07434
996.944	0.06629	0.06335	0.06765	0.06605	0.06426	0.06598	0.06939	0.0675
1000.172	0.06202	0.06421	0.06299	0.06783	0.06461	0.06441	0.06465	0.06691