File: Methylene_blue.dat
# Methylene blue
# Wavelength(nm) Absorbance(a.u.)
#	A.M. 195 min	A.M. 120 min	A.M. 90 min	A.M. 60 min	A.M. 30 min	A.M. 15 min	A.M. 5 min	A.M. 0 min
199.408	-0.06417	-0.03533	-0.00818	 0.0129	         0.01452	-0.00598	0.02573	          -0.01275
205.964	-0.06678	-0.02232	-0.00983	-0.01365	 0.00651	 0.0057	        0.0161	           0.01836
212.516	-0.06795	-0.03367	-0.01916	-0.0143	         0.00814	-0.00911	0.01117	           0.01267
219.066	-0.06449	-0.02266	-0.01191	-0.01125	 0.01673	-0.0011	        0.01146	           0.01984
225.612	-0.06291	-0.00793	0.00182	0.00413	0.02258	0.01118	0.01512	0.0229
232.155	-0.0663	-0.01876	0.00117	0.00239	0.0202	0.00983	0.01057	0.01303
238.694	-0.04378	-0.00486	0.01195	0.01352	0.03152	0.0233	0.02528	0.02903
245.231	-0.02929	0.01125	0.02592	0.02536	0.04452	0.03665	0.04312	0.0546
251.764	-0.02214	0.01835	0.03061	0.027	0.04817	0.03471	0.04674	0.05831
258.294	-0.00976	0.02458	0.04042	0.03576	0.05502	0.04515	0.05459	0.06325
264.82	0.00895	0.03761	0.05621	0.05418	0.07282	0.07158	0.07924	0.08021
271.344	0.02307	0.05852	0.0821	0.08679	0.11032	0.11273	0.11438	0.11887
277.863	0.03911	0.1	0.12449	0.13288	0.16625	0.16803	0.16832	0.17704
284.38	0.05572	0.14589	0.17394	0.19513	0.23474	0.23774	0.24113	0.25071
290.892	0.0668	0.16634	0.2001	0.22947	0.2698	0.27901	0.27916	0.29058
297.402	0.06744	0.14196	0.16902	0.1941	0.22526	0.23399	0.2333	0.245
303.907	0.05818	0.10192	0.11955	0.13379	0.15318	0.15861	0.15854	0.17012
310.41	0.05109	0.07484	0.08555	0.09381	0.10383	0.10749	0.10787	0.11833
316.908	0.05123	0.06752	0.07659	0.08163	0.08902	0.0901	0.09011	0.10105
323.403	0.05057	0.06407	0.07164	0.0751	0.08157	0.08117	0.08163	0.09296
329.895	0.04715	0.05595	0.0601	0.06304	0.06725	0.06744	0.06748	0.07818
336.382	0.04024	0.04433	0.04568	0.04823	0.04848	0.049	0.04803	0.05804
342.866	0.03354	0.03346	0.03467	0.03542	0.03362	0.03396	0.03286	0.0433
349.346	0.02871	0.02679	0.02777	0.02651	0.02581	0.02575	0.02611	0.03474
355.823	0.0237	0.02129	0.02129	0.02079	0.02042	0.0199	0.02028	0.02897
362.295	0.02218	0.01827	0.01821	0.01892	0.0189	0.01707	0.01834	0.02704
368.764	0.02091	0.01736	0.01744	0.0189	0.0181	0.01713	0.01811	0.02669
375.229	0.01888	0.01684	0.01725	0.01837	0.01812	0.01836	0.01791	0.02768
381.69	0.01556	0.01506	0.01599	0.01727	0.01747	0.01768	0.01785	0.02742
388.147	0.01406	0.01455	0.01608	0.01714	0.01805	0.01735	0.01832	0.02731
394.6	0.01313	0.01271	0.01521	0.01647	0.01787	0.01634	0.01717	0.0263
401.049	0.01198	0.0109	0.01358	0.01457	0.01502	0.01495	0.01533	0.02457
407.495	0.01182	0.0099	0.01219	0.01282	0.01311	0.01351	0.01389	0.02295
413.936	0.01108	0.00825	0.01074	0.01126	0.01196	0.01155	0.01222	0.02059
420.373	0.01084	0.00819	0.01055	0.01112	0.01168	0.0113	0.01237	0.02049
426.805	0.00991	0.00896	0.01038	0.01177	0.01268	0.01244	0.01345	0.02191
433.234	0.00873	0.00906	0.01096	0.01199	0.01389	0.01336	0.01489	0.02362
439.659	0.00909	0.00945	0.01211	0.01382	0.01501	0.01508	0.01632	0.02576
446.079	0.00883	0.01043	0.01374	0.01587	0.01705	0.01761	0.01829	0.02761
452.495	0.00793	0.01062	0.01453	0.01664	0.01939	0.01937	0.02032	0.02885
458.907	0.00853	0.01253	0.01639	0.01879	0.02251	0.02203	0.02324	0.03149
465.315	0.00861	0.01477	0.0187	0.02129	0.02492	0.0251	0.02657	0.03484
471.718	0.00828	0.0154	0.02055	0.02234	0.02696	0.02802	0.02877	0.03749
478.117	0.00761	0.01476	0.02079	0.02244	0.02731	0.02847	0.02874	0.03793
484.511	0.00906	0.01688	0.02263	0.02549	0.0303	0.0312	0.03155	0.04101
490.901	0.00985	0.01946	0.02615	0.02947	0.03562	0.03639	0.03723	0.04574
497.287	0.00832	0.01879	0.02661	0.03015	0.03734	0.03768	0.0393	0.04774
503.668	0.0079	0.01901	0.02635	0.03012	0.03687	0.03804	0.03879	0.04874
510.045	0.00768	0.01886	0.02596	0.02952	0.03658	0.03772	0.03832	0.0483
516.417	0.00804	0.02043	0.02735	0.03105	0.03866	0.03954	0.04057	0.05012
522.784	0.00707	0.02061	0.02847	0.03253	0.0403	0.04098	0.0422	0.05146
529.147	0.00708	0.02108	0.02906	0.03438	0.04153	0.04294	0.04416	0.05339
535.505	0.00823	0.02432	0.0325	0.03888	0.0466	0.04816	0.04989	0.05861
541.859	0.00955	0.02925	0.03886	0.04617	0.05563	0.05772	0.05988	0.06802
548.208	0.01052	0.03519	0.04691	0.05589	0.06758	0.07064	0.07255	0.08081
554.552	0.01196	0.04278	0.05642	0.06771	0.08211	0.08568	0.08786	0.09613
560.892	0.01395	0.0512	0.06702	0.08035	0.09708	0.10117	0.10397	0.11182
567.226	0.01614	0.06102	0.07968	0.09541	0.11498	0.11994	0.12315	0.13025
573.556	0.01904	0.07297	0.09503	0.11361	0.13709	0.14283	0.14646	0.15288
579.881	0.02321	0.0894	0.11617	0.13819	0.16757	0.17432	0.17833	0.18483
586.201	0.02821	0.11053	0.14421	0.17085	0.20821	0.21702	0.22114	0.22786
592.516	0.03349	0.13463	0.17646	0.20926	0.25674	0.26814	0.27217	0.2791
598.827	0.03887	0.15913	0.20943	0.24828	0.30727	0.32151	0.32528	0.33298
605.132	0.04354	0.18041	0.23786	0.28181	0.35039	0.36747	0.37058	0.37954
611.432	0.04663	0.1937	0.25486	0.30114	0.37396	0.39234	0.39492	0.40436
617.728	0.04878	0.20037	0.26211	0.30763	0.37964	0.39728	0.39975	0.40917
624.018	0.05162	0.20735	0.26911	0.314	0.38401	0.40083	0.40276	0.41221
630.303	0.05559	0.22163	0.28596	0.33202	0.40308	0.41996	0.4216	0.43104
636.583	0.06116	0.24592	0.31668	0.36625	0.4439	0.46259	0.46344	0.47329
642.858	0.06776	0.27729	0.35762	0.4132	0.50226	0.52342	0.52374	0.53445
649.128	0.07303	0.3093	0.4013	0.46497	0.56789	0.59313	0.59252	0.60497
655.392	0.07488	0.33088	0.43267	0.50299	0.61855	0.64801	0.64649	0.66104
661.651	0.07266	0.33838	0.44627	0.52201	0.64656	0.68016	0.67826	0.69447
667.905	0.06418	0.31492	0.41863	0.49247	0.61473	0.64896	0.64638	0.66372
674.154	0.04827	0.24929	0.33295	0.39309	0.49235	0.52026	0.51771	0.53431
680.397	0.02904	0.16454	0.22112	0.26281	0.32944	0.34841	0.34693	0.36075
686.635	0.01214	0.09051	0.12366	0.14919	0.18797	0.19927	0.19863	0.20986
692.868	-1.12387E-4	0.04033	0.05797	0.07238	0.09305	0.09905	0.09923	0.10896
699.095	-0.0068	0.01429	0.02412	0.03248	0.04387	0.04713	0.04795	0.05696
705.317	-0.00997	0.00107	0.00694	0.01212	0.0183	0.0204	0.0213	0.02974
711.533	-0.0114	-0.00551	-0.00185	0.00167	0.00537	0.00671	0.00775	0.0159
717.744	-0.01289	-0.00962	-0.00722	-0.00469	-0.00209	-9.62065E-4	2.10787E-5	0.00818
723.949	-0.01357	-0.01194	-0.01002	-0.00803	-0.00641	-0.00561	-0.00473	0.00359
730.148	-0.01342	-0.01281	-0.0111	-0.00951	-0.00841	-0.00789	-0.007	0.00147
736.342	-0.01331	-0.01328	-0.01177	-0.01064	-0.00992	-0.00943	-0.0084	-3.1225E-5
742.531	-0.0137	-0.01408	-0.01303	-0.01193	-0.01161	-0.01119	-0.0104	-0.00202
748.713	-0.01403	-0.01493	-0.01421	-0.01323	-0.01279	-0.01274	-0.01184	-0.00344
754.89	-0.01474	-0.01577	-0.0152	-0.01416	-0.01408	-0.01409	-0.0131	-0.00461
761.061	-0.01545	-0.01654	-0.01592	-0.01499	-0.01518	-0.01513	-0.01408	-0.00596
767.227	-0.0163	-0.01762	-0.01698	-0.01635	-0.01633	-0.01628	-0.01521	-0.00731
773.387	-0.0175	-0.01902	-0.01844	-0.01784	-0.01803	-0.01793	-0.01704	-0.00894
779.54	-0.01865	-0.02038	-0.0197	-0.01926	-0.0198	-0.01969	-0.01879	-0.01036
785.688	-0.0193	-0.02117	-0.02055	-0.02005	-0.02055	-0.02046	-0.01971	-0.01115
791.831	-0.01909	-0.02121	-0.02058	-0.0203	-0.02024	-0.02034	-0.01975	-0.01129
797.967	-0.01993	-0.02199	-0.02133	-0.02122	-0.02109	-0.02131	-0.02051	-0.01191
804.097	-0.02107	-0.02305	-0.02234	-0.02197	-0.02237	-0.02262	-0.0218	-0.01312
810.221	-0.02094	-0.023	-0.02254	-0.02232	-0.02252	-0.02286	-0.022	-0.01321
816.34	-0.02142	-0.02347	-0.02306	-0.02288	-0.02293	-0.02311	-0.02245	-0.0137
822.452	-0.02253	-0.02447	-0.02433	-0.02392	-0.02422	-0.02448	-0.024	-0.015
828.558	-0.02125	-0.02289	-0.0231	-0.02267	-0.02283	-0.02307	-0.02247	-0.01354
834.658	-0.01927	-0.02103	-0.02112	-0.02018	-0.02082	-0.02097	-0.02039	-0.01196
840.752	-0.01981	-0.02145	-0.02134	-0.02094	-0.0214	-0.02168	-0.02114	-0.01327
846.84	-0.01991	-0.02169	-0.02156	-0.02152	-0.02165	-0.0218	-0.02113	-0.0131
852.921	-0.01931	-0.0218	-0.02138	-0.02127	-0.02154	-0.02162	-0.02093	-0.01251
858.997	-0.01843	-0.02093	-0.02065	-0.02061	-0.02044	-0.02094	-0.02007	-0.01237
865.066	-0.01791	-0.02054	-0.02045	-0.02044	-0.02017	-0.02058	-0.01978	-0.01182
871.129	-0.01847	-0.0206	-0.02039	-0.02024	-0.02046	-0.02075	-0.02015	-0.0118
877.185	-0.01941	-0.02113	-0.02055	-0.02009	-0.02052	-0.02112	-0.02047	-0.01197
883.235	-0.01917	-0.02118	-0.02057	-0.02037	-0.02043	-0.02072	-0.02036	-0.01172
889.279	-0.01755	-0.01949	-0.01926	-0.01937	-0.01961	-0.02011	-0.01957	-0.01064
895.317	-0.01718	-0.01901	-0.01905	-0.01884	-0.01911	-0.02012	-0.01942	-0.01033
901.348	-0.01676	-0.01885	-0.01896	-0.01863	-0.01869	-0.01935	-0.01886	-0.0107
907.372	-0.01634	-0.01855	-0.0185	-0.01814	-0.01856	-0.01918	-0.01837	-0.0105
913.39	-0.01598	-0.0182	-0.01825	-0.01795	-0.01854	-0.01901	-0.01783	-0.00986
919.402	-0.01329	-0.01534	-0.01554	-0.01559	-0.01604	-0.01627	-0.01541	-0.00775
925.407	-0.0073	-0.00992	-0.00965	-0.00986	-0.00993	-0.01059	-0.00967	-0.00228
931.405	-0.00122	-0.00305	-0.00289	-0.00336	-0.00319	-0.00395	-0.00255	0.00522
937.397	0.00412	0.00335	0.00289	0.00208	0.00277	0.00208	0.00289	0.01052
943.382	0.01426	0.01266	0.013	0.01281	0.01359	0.01182	0.01229	0.02108
949.36	0.0326	0.03125	0.03021	0.03069	0.03092	0.02972	0.03105	0.03907
955.332	0.05071	0.0495	0.04894	0.04865	0.04764	0.04808	0.04778	0.05706
961.297	0.06341	0.06069	0.06161	0.06118	0.06043	0.05952	0.05991	0.06952
967.255	0.06786	0.06501	0.06563	0.06497	0.06528	0.0637	0.06505	0.07398
973.207	0.0699	0.0675	0.06703	0.06649	0.06658	0.06594	0.067	0.07547
979.151	0.06755	0.06521	0.06504	0.06468	0.06387	0.06358	0.06397	0.07283
985.089	0.06191	0.05937	0.06013	0.05942	0.05938	0.0589	0.05879	0.06713
991.02	0.05547	0.05351	0.05351	0.05322	0.05321	0.05217	0.05256	0.06008
996.944	0.04479	0.04375	0.04416	0.0441	0.04189	0.04258	0.04253	0.05052
1000.172	0.04561	0.04654	0.04672	0.0444	0.04417	0.04192	0.04599	0.0518